# wavelength [um], throughput
0.321    0.00000
0.323    0.00002
0.325    0.00046
0.327    0.00526
0.329    0.02390
0.331    0.04898
0.333    0.08185
0.335    0.12277
0.337    0.14695
0.339    0.17316
0.341    0.18345
0.343    0.14596
0.345    0.18281
0.347    0.25723
0.349    0.27736
0.351    0.28033
0.353    0.29140
0.355    0.28547
0.357    0.28084
0.359    0.28221
0.361    0.27695
0.363    0.26857
0.364    0.26310
0.365    0.25980
0.367    0.25087
0.369    0.23897
0.371    0.22771
0.373    0.21463
0.375    0.20324
0.377    0.19790
0.379    0.19448
0.381    0.20044
0.383    0.22009
0.385    0.24403
0.387    0.27541
0.389    0.32483
0.391    0.37507
0.393    0.43397
0.395    0.48619
0.397    0.51822
0.399    0.55545
0.401    0.61009
0.403    0.66496
0.405    0.69395
0.407    0.70697
0.409    0.72264
0.411    0.75939
0.413    0.78837
0.415    0.81350
0.417    0.83407
0.419    0.84165
0.421    0.85270
0.423    0.87281
0.425    0.88248
0.427    0.89082
0.429    0.89787
0.431    0.90944
0.433    0.92220
0.435    0.93078
0.437    0.91626
0.439    0.90245
0.441    0.90459
0.443    0.91773
0.445    0.93486
0.447    0.94993
0.449    0.95992
0.451    0.95575
0.453    0.95445
0.455    0.95370
0.457    0.95994
0.459    0.97229
0.461    0.97495
0.463    0.96672
0.465    0.97262
0.467    0.98424
0.469    0.99375
0.471    0.99315
0.473    0.98799
0.475    0.96649
0.477    0.95729
0.479    0.95337
0.481    0.96531
0.483    0.98620
0.485    0.99450
0.487    0.98732
0.489    0.97489
0.491    0.97656
0.493    0.98528
0.495    0.99030
0.497    0.99133
0.499    0.99376
0.501    0.99381
0.503    0.98915
0.505    0.98514
0.507    0.98679
0.509    0.99238
0.511    1.00000
0.513    0.99298
0.515    0.99570
0.517    0.99182
0.519    0.98794
0.521    0.98763
0.523    0.98585
0.525    0.99039
0.527    0.98502
0.529    0.97577
0.531    0.96247
0.533    0.94867
0.535    0.93654
0.537    0.92969
0.539    0.93510
0.541    0.94634
0.543    0.95001
0.545    0.94385
0.547    0.93997
0.549    0.93073
0.551    0.92957
0.553    0.92792
0.555    0.92320
0.557    0.91741
0.559    0.91652
0.561    0.92422
0.563    0.93177
0.565    0.93568
0.567    0.93824
0.569    0.93899
0.571    0.93873
0.573    0.93576
0.575    0.92787
0.577    0.91974
0.579    0.92136
0.581    0.92369
0.583    0.93069
0.585    0.93132
0.587    0.93703
0.589    0.94384
0.591    0.94106
0.593    0.93842
0.595    0.92781
0.597    0.91337
0.599    0.89806
0.601    0.89807
0.603    0.89545
0.605    0.90462
0.607    0.91512
0.609    0.92608
0.611    0.92919
0.613    0.92428
0.615    0.92023
0.617    0.91432
0.619    0.90184
0.621    0.88965
0.623    0.87590
0.625    0.86145
0.627    0.86135
0.629    0.86818
0.631    0.87975
0.633    0.88878
0.635    0.88848
0.637    0.88304
0.639    0.88025
0.641    0.87728
0.643    0.88203
0.645    0.88055
0.647    0.88415
0.649    0.87533
0.651    0.86393
0.653    0.82038
0.655    0.73353
0.657    0.60709
0.659    0.46594
0.661    0.32909
0.663    0.20746
0.665    0.11592
0.667    0.05296
0.669    0.02161
0.671    0.00936
0.673    0.00470
0.675    0.00279
0.677    0.00190
0.679    0.00144
0.681    0.00111
0.683    0.00079
0.685    0.00051
0.687    0.00028
0.689    0.00014
0.691    0.00007
0.693    0.00004
0.695    0.00003
0.697    0.00002
0.699    0.00001
0.701    0.00001
0.703    0.00001
0.705    0.00001
0.707    0.00001
0.709    0.00001
0.711    0.00001
0.713    0.00001
0.715    0.00001
0.717    0.00001
0.719    0.00000
0.721    0.00000
0.723    0.00001
0.725    0.00001
0.727    0.00000
0.729    0.00000
0.731    0.00000
0.733    0.00000
0.735    0.00000
0.737    0.00000
0.739    0.00000
0.741    0.00000
0.743    0.00000
0.745    0.00000
0.747    0.00001
0.749    0.00000
0.751    0.00001
0.753    0.00000
0.755    0.00000
0.757    0.00000
0.759    0.00000
0.761    0.00000
0.763    0.00000
0.765    0.00001
0.767    0.00000
0.769    0.00000
0.771    0.00000
0.773    0.00000
0.775    0.00000
0.777    0.00000
0.779    0.00000
0.781    0.00000
0.783    0.00000
0.785    0.00000
0.787    0.00000
0.789    0.00000
0.791    0.00001
0.793    0.00000
0.795    0.00000
0.797    0.00000
0.799    0.00000
0.801    0.00000
0.803    0.00000
0.805    0.00000
0.807    0.00000
0.809    0.00000
0.811    0.00000
0.813    0.00000
0.815    0.00000
0.817    0.00000
0.819    0.00000
0.821    0.00000
0.823    0.00000
0.825    0.00000
0.827    0.00000
0.829    0.00000
0.831    0.00000
0.833    0.00000
0.835    0.00000
0.837    0.00001
0.839    0.00000
0.841    0.00000
0.843    0.00000
0.845    0.00001
0.847    0.00000
0.849    0.00000
0.851    0.00003
0.853    0.00000
0.855    0.00001
0.857    0.00010
0.859    0.00006
0.861    0.00000
0.863    0.00000
0.865    0.00003
0.867    0.00004
0.869    0.00003
0.871    0.00000
0.873    0.00000
0.875    0.00007
0.877    0.00002
0.879    0.00003
0.881    0.00000
0.883    0.00006
0.885    0.00000
0.887    0.00002
0.889    0.00007
0.891    0.00005
0.893    0.00001
0.895    0.00000
0.897    0.00002
0.899    0.00000
0.901    0.00004
0.903    0.00002
0.905    0.00001
0.907    0.00001
0.909    0.00003
0.911    0.00000
0.913    0.00000
0.915    0.00000
0.917    0.00001
0.919    0.00003
0.921    0.00003
0.923    0.00001
0.925    0.00001
0.927    0.00001
0.929    0.00003
0.931    0.00000
0.933    0.00003
0.935    0.00001
0.937    0.00000
0.939    0.00001
0.941    0.00000
0.943    0.00001
0.945    0.00001
0.947    0.00000
0.949    0.00002
0.951    0.00002
0.953    0.00000
0.955    0.00000
0.957    0.00000
0.959    0.00000
0.961    0.00000
0.963    0.00000
0.965    0.00001
0.967    0.00000
0.969    0.00000
0.971    0.00000
0.973    0.00002
0.975    0.00000
0.977    0.00000
0.979    0.00000
0.981    0.00000
0.983    0.00000
0.985    0.00000
0.987    0.00000
0.989    0.00000
0.991    0.00000
0.993    0.00001
0.995    0.00000
0.997    0.00000
0.999    0.00000
1.003    0.00001
1.008    0.00000
1.013    0.00000
1.018    0.00000
1.023    0.00000
1.028    0.00000
1.033    0.00000
1.038    0.00000
1.043    0.00000
1.048    0.00001
1.053    0.00001
1.058    0.00004
1.063    0.00021
1.068    0.00080
1.073    0.00061
1.078    0.00054
1.083    0.00035
1.088    0.00026
1.093    0.00016
1.098    0.00009
1.103    0.00000
